Temperature (K)	Pressure (Pa)	"Density (l, kg/m3)"	"Volume (l, m3/kg)"	"Internal Energy (l, J/kg)"	"Enthalpy (l, J/kg)"	"Entropy (l, J/kg*K)"	"Cv (l, J/kg*K)"	"Cp (l, J/kg*K)"	"Sound Spd. (l, m/s)"	"Joule-Thomson (l, K/Pa)"	"Viscosity (l, Pa*s)"	"Therm. Cond. (l, W/m*K)"	"Surf. Tension (l, N/m)"	"Density (v, kg/m3)"	"Volume (v, m3/kg)"	"Internal Energy (v, J/kg)"	"Enthalpy (v, J/kg)"	"Entropy (v, J/kg*K)"	"Cv (v, J/kg*K)"	"Cp (v, J/kg*K)"	"Sound Spd. (v, m/s)"	"Joule-Thomson (v, K/Pa)"	"Viscosity (v, Pa*s)"	"Therm. Cond. (v, W/m*K)"
160	9.01E-04	907.91	0.0011014	-429440	-429440	-1713.4	1322.8	1804.5	1700.7	-4.94E-07	0.11616	0.22	0.037907	3.12E-08	32034000	583090	611970	4795.4	859.53	1040	186.92	0.0022785	4.38E-06	0.005414
161	1.13E-03	906.83	0.0011027	-427630	-427630	-1702.1	1338.9	1814.1	1694.3	-4.92E-07	0.10703	0.21915	0.037698	3.88E-08	25767000	583950	613010	4761.5	861.65	1042.1	187.47	0.0022167	4.41E-06	0.0054692
162	1.41E-03	905.77	0.001104	-425810	-425810	-1690.9	1354.1	1823.3	1688.3	-4.91E-07	0.098957	0.21831	0.037492	4.81E-08	20787000	584820	614050	4728.1	863.77	1044.2	188.01	0.0021569	4.44E-06	0.0055245
163	1.75E-03	904.72	0.0011053	-423980	-423980	-1679.6	1368.2	1832	1682.6	-4.89E-07	0.091773	0.21749	0.037289	5.95E-08	16816000	585680	615100	4695.1	865.89	1046.4	188.55	0.0020991	4.47E-06	0.0055799
164	2.17E-03	903.67	0.0011066	-422150	-422150	-1668.4	1381.4	1840.2	1677.2	-4.88E-07	0.085346	0.21669	0.037088	7.33E-08	13642000	586550	616150	4662.7	868.01	1048.5	189.09	0.0020432	4.51E-06	0.0056353
165	2.68E-03	902.64	0.0011079	-420300	-420300	-1657.2	1393.7	1847.9	1672	-4.87E-07	0.079568	0.2159	0.036889	9.01E-08	11098000	587420	617200	4630.7	870.14	1050.6	189.62	0.0019891	4.54E-06	0.0056907
166	3.31E-03	901.61	0.0011091	-418450	-418450	-1646	1405.2	1855.1	1667	-4.85E-07	0.074351	0.21513	0.036693	1.10E-07	9052000	588290	618250	4599.2	872.27	1052.7	190.15	0.0019367	4.57E-06	0.0057462
167	4.07E-03	900.59	0.0011104	-416590	-416590	-1634.8	1415.9	1861.9	1662.2	-4.84E-07	0.069621	0.21437	0.036499	1.35E-07	7402900	589160	619300	4568.1	874.4	1054.9	190.69	0.0018861	4.61E-06	0.0058017
168	5.00E-03	899.58	0.0011116	-414730	-414730	-1623.7	1425.9	1868.3	1657.6	-4.83E-07	0.065317	0.21363	0.036307	1.65E-07	6069900	590040	620360	4537.5	876.54	1057	191.22	0.0018371	4.64E-06	0.0058573
169	6.11E-03	898.57	0.0011129	-412860	-412860	-1612.6	1435.2	1874.3	1653.1	-4.82E-07	0.061388	0.2129	0.036118	2.00E-07	4989600	590910	621410	4507.4	878.68	1059.2	191.75	0.0017896	4.67E-06	0.005913
170	7.46E-03	897.57	0.0011141	-410980	-410980	-1601.5	1443.8	1879.8	1648.7	-4.81E-07	0.05779	0.21218	0.035931	2.43E-07	4111800	591790	622480	4477.6	880.83	1061.3	192.27	0.0017436	4.70E-06	0.0059688
171	9.09E-03	896.58	0.0011153	-409100	-409100	-1590.5	1451.8	1885	1644.4	-4.80E-07	0.054485	0.21147	0.035746	2.94E-07	3396800	592680	623540	4448.3	882.98	1063.5	192.8	0.0016991	0.000004736	0.0060247
172	1.10E-02	895.6	0.0011166	-407210	-407210	-1579.5	1459.2	1889.8	1640.2	-4.79E-07	0.051442	0.21077	0.035563	3.56E-07	2812900	593560	624600	4419.4	885.14	1065.6	193.32	0.0016559	4.77E-06	0.0060807
173	1.34E-02	894.62	0.0011178	-405320	-405320	-1568.5	1466.2	1894.3	1636.1	-4.79E-07	0.048633	0.21009	0.035383	4.28E-07	2334900	594450	625670	4391	887.3	1067.8	193.84	0.0016141	4.80E-06	0.0061368
174	1.62E-02	893.64	0.001119	-403420	-403420	-1557.6	1472.6	1898.5	1632	-4.78E-07	0.046034	0.20941	0.035204	5.15E-07	1942600	595330	626740	4362.9	889.47	1070	194.36	0.0015736	4.83E-06	0.006193
175	1.95E-02	892.67	0.0011202	-401520	-401520	-1546.7	1478.5	1902.4	1628	-4.77E-07	0.043625	0.20874	0.035028	6.17E-07	1619900	596220	627810	4335.2	891.65	1072.1	194.88	0.0015343	4.87E-06	0.0062493
176	2.35E-02	891.7	0.0011214	-399620	-399620	-1535.8	1484.1	1906	1624	-4.76E-07	0.041387	0.20808	0.034854	7.39E-07	1353900	597120	628880	4307.9	893.83	1074.3	195.39	0.0014962	4.90E-06	0.0063058
177	2.82E-02	890.74	0.0011227	-397710	-397710	-1525	1489.2	1909.4	1620.1	-4.76E-07	0.039305	0.20744	0.034682	8.82E-07	1134000	598010	629960	4281	896.02	1076.5	195.91	0.0014592	4.93E-06	0.0063624
178	3.37E-02	889.79	0.0011239	-395800	-395800	-1514.2	1494	1912.5	1616.1	-4.75E-07	0.037363	0.2068	0.034511	1.05E-06	951960	598910	631030	4254.5	898.21	1078.7	196.42	0.0014234	0.000004964	0.0064191
179	4.03E-02	888.83	0.0011251	-393880	-393880	-1503.5	1498.5	1915.4	1612.2	-4.75E-07	0.03555	0.20616	0.034343	1.25E-06	800820	599810	632110	4228.3	900.42	1080.9	196.93	0.0013887	5.00E-06	0.006476
180	4.81E-02	887.88	0.0011263	-391970	-391970	-1492.8	1502.6	1918.1	1608.3	-4.74E-07	0.033855	0.20554	0.034177	1.48E-06	675080	600710	633200	4202.5	902.63	1083.1	197.44	0.0013549	0.000005029	0.0065331
181	5.73E-02	886.94	0.0011275	-390050	-390050	-1482.2	1506.5	1920.6	1604.4	-4.74E-07	0.032267	0.20493	0.034013	1.75E-06	570270	601610	634280	4177.1	904.84	1085.3	197.95	0.0013222	5.06E-06	0.0065903
182	6.81E-02	886	0.0011287	-388130	-388130	-1471.6	1510.1	1923	1600.5	-4.74E-07	0.030778	0.20432	0.03385	2.07E-06	482700	602520	635370	4152	907.07	1087.5	198.45	0.0012904	5.09E-06	0.0066477
183	8.07E-02	885.06	0.0011299	-386200	-386200	-1461.1	1513.5	1925.2	1596.6	-4.73E-07	0.029379	0.20372	0.03369	2.44E-06	409390	603430	636460	4127.2	909.3	1089.8	198.96	0.0012596	5.13E-06	0.0067052
184	9.55E-02	884.12	0.0011311	-384270	-384270	-1450.6	1516.8	1927.3	1592.7	-4.73E-07	0.028065	0.20313	0.033531	2.87E-06	347900	604340	637550	4102.8	911.54	1092	199.46	0.0012296	5.16E-06	0.0067629
185	1.13E-01	883.19	0.0011323	-382350	-382350	-1440.1	1519.8	1929.2	1588.8	-4.72E-07	0.026827	0.20254	0.033374	0.000003376	296210	605250	638640	4078.7	913.79	1094.3	199.96	0.0012005	5.19E-06	0.0068209
186	1.33E-01	882.26	0.0011335	-380420	-380420	-1429.7	1522.7	1931.1	1584.9	-4.72E-07	0.025661	0.20196	0.033219	3.96E-06	252680	606170	639740	4055	916.05	1096.5	200.46	0.0011722	5.22E-06	0.006879
187	1.56E-01	881.33	0.0011347	-378480	-378480	-1419.4	1525.4	1932.9	1581	-4.72E-07	0.024561	0.20139	0.033066	4.63E-06	215950	607080	640830	4031.5	918.32	1098.8	200.95	0.0011448	5.26E-06	0.0069373
188	1.84E-01	880.4	0.0011358	-376550	-376550	-1409	1528	1934.6	1577	-4.71E-07	0.023522	0.20082	0.032914	5.41E-06	184900	608000	641930	4008.4	920.59	1101.1	201.45	0.0011181	5.29E-06	0.0069958
189	2.15E-01	879.48	0.001137	-374620	-374620	-1398.8	1530.5	1936.3	1573.1	-4.71E-07	0.02254	0.20026	0.032764	6.31E-06	158590	608920	643030	3985.6	922.88	1103.4	201.94	0.0010922	5.32E-06	0.0070545
190	2.52E-01	878.56	0.0011382	-372680	-372680	-1388.6	1533	1937.9	1569.1	-4.71E-07	0.021611	0.19971	0.032616	7.34E-06	136270	609850	644140	3963.1	925.17	1105.7	202.44	0.0010669	5.35E-06	0.0071134
191	2.94E-01	877.64	0.0011394	-370740	-370740	-1378.4	1535.3	1939.5	1565.1	-4.70E-07	0.020732	0.19916	0.03247	8.53E-06	117300	610770	645250	3940.9	927.47	1108	202.93	0.0010424	5.39E-06	0.0071725
192	3.43E-01	876.73	0.0011406	-368800	-368800	-1368.3	1537.6	1941	1561.1	-4.70E-07	0.019899	0.19862	0.032325	9.89E-06	101140	611700	646360	3919	929.79	1110.3	203.42	0.0010186	0.000005418	0.0072319
193	3.99E-01	875.81	0.0011418	-366860	-366860	-1358.2	1539.9	1942.5	1557.1	-4.70E-07	0.019108	0.19809	0.032181	0.000011448	87355	612630	647470	3897.4	932.11	1112.6	203.9	0.00099541	5.45E-06	0.0072914
194	4.63E-01	874.9	0.001143	-364910	-364910	-1348.1	1542.1	1944.1	1553	-4.69E-07	0.018358	0.19756	0.03204	0.000013232	75574	613570	648580	3876.1	934.44	1114.9	204.39	0.00097286	5.48E-06	0.0073512
195	5.37E-01	873.99	0.0011442	-362970	-362970	-1338.1	1544.4	1945.6	1549	-4.69E-07	0.017645	0.19704	0.031899	0.00001527	65488	614500	649700	3855	936.79	1117.3	204.88	0.00095091	0.000005515	0.0074113
196	6.22E-01	873.09	0.0011454	-361020	-361020	-1328.2	1546.6	1947.1	1544.9	-4.69E-07	0.016968	0.19652	0.031761	0.000017593	56840	615440	650810	3834.3	939.14	1119.6	205.36	0.00092956	5.55E-06	0.0074715
197	7.20E-01	872.18	0.0011466	-359080	-359080	-1318.3	1548.8	1948.7	1540.8	-4.68E-07	0.016323	0.19601	0.031624	0.000020238	49412	616380	651940	3813.8	941.5	1122	205.84	0.00090878	5.58E-06	0.007532
198	8.31E-01	871.28	0.0011477	-357130	-357130	-1308.4	1551	1950.3	1536.7	-4.68E-07	0.01571	0.1955	0.031488	0.000023244	43021	617320	653060	3793.6	943.88	1124.4	206.32	0.00088855	5.61E-06	0.0075928
199	9.57E-01	870.37	0.0011489	-355170	-355170	-1298.6	1553.2	1951.9	1532.5	-4.67E-07	0.015126	0.195	0.031354	0.000026656	37515	618270	654180	3773.6	946.26	1126.8	206.8	0.00086886	5.64E-06	0.0076538
200	1.10E+00	869.47	0.0011501	-353220	-353220	-1288.8	1555.5	1953.6	1528.4	-4.67E-07	0.014569	0.1945	0.031221	0.000030523	32763	619220	655310	3753.9	948.66	1129.1	207.28	0.00084968	5.68E-06	0.0077151
201	1.27E+00	868.58	0.0011513	-351270	-351270	-1279	1557.8	1955.3	1524.2	-4.66E-07	0.014038	0.19401	0.031089	0.000034898	28655	620170	656440	3734.5	951.06	1131.6	207.75	0.000831	5.71E-06	0.0077766
202	1.45E+00	867.68	0.0011525	-349310	-349310	-1269.3	1560.1	1957.1	1520	-4.66E-07	0.013532	0.19352	0.030959	0.000039842	25099	621120	657570	3715.3	953.48	1134	208.23	0.00081282	5.74E-06	0.0078383
203	1.66E+00	866.78	0.0011537	-347350	-347350	-1259.6	1562.5	1958.9	1515.8	-4.66E-07	0.013049	0.19304	0.030831	0.000045422	22016	622070	658710	3696.3	955.91	1136.4	208.7	0.0007951	0.000005773	0.0079003
204	1.90E+00	865.89	0.0011549	-345390	-345390	-1250	1564.9	1960.7	1511.6	-4.65E-07	0.012587	0.19257	0.030703	0.000051709	19339	623030	659850	3677.6	958.35	1138.8	209.17	0.00077784	5.81E-06	0.0079626
205	2.17E+00	865	0.0011561	-343430	-343430	-1240.4	1567.4	1962.7	1507.3	-4.65E-07	0.012145	0.1921	0.030577	0.000058784	17011	623990	660990	3659.2	960.8	1141.3	209.64	0.00076101	5.84E-06	0.0080252
206	2.48E+00	864.11	0.0011573	-341470	-341470	-1230.9	1569.9	1964.7	1503.1	-4.64E-07	0.011724	0.19163	0.030452	0.000066736	14984	624950	662130	3641	963.26	1143.8	210.11	0.00074462	5.87E-06	0.008088
207	2.83E+00	863.22	0.0011585	-339500	-339500	-1221.3	1572.5	1966.8	1498.8	-4.63E-07	0.01132	0.19117	0.030329	0.00007566	13217	625910	663270	3623	965.73	1146.2	210.57	0.00072864	5.90E-06	0.0081511
208	3.22E+00	862.33	0.0011597	-337530	-337530	-1211.9	1575.2	1968.9	1494.6	-4.63E-07	0.010934	0.19071	0.030207	0.000085664	11674	626880	664420	3605.2	968.22	1148.7	211.04	0.00071307	5.93E-06	0.0082145
209	3.65E+00	861.44	0.0011608	-335560	-335560	-1202.4	1577.9	1971.1	1490.3	-4.62E-07	0.010564	0.19026	0.030086	0.000096862	10324	627850	665570	3587.7	970.71	1151.2	211.5	0.00069789	5.97E-06	0.0082782
210	4.15E+00	860.56	0.001162	-333590	-333590	-1193	1580.7	1973.4	1486	-4.62E-07	0.01021	0.18981	0.029966	0.00010938	9142.2	628820	666720	3570.4	973.22	1153.7	211.96	0.00068308	0.000005998	0.0083421
211	4.70E+00	859.67	0.0011632	-331620	-331620	-1183.6	1583.6	1975.8	1481.7	-4.61E-07	0.0098704	0.18937	0.029847	0.00012336	8106.1	629800	667880	3553.3	975.74	1156.2	212.43	0.00066864	6.03E-06	0.0084063
212	5.32E+00	858.79	0.0011644	-329640	-329640	-1174.3	1586.5	1978.2	1477.4	-4.60E-07	0.009545	0.18893	0.029729	0.00013896	7196.4	630770	669030	3536.5	978.27	1158.8	212.89	0.00065456	6.06E-06	0.0084708
213	6.01E+00	857.91	0.0011656	-327660	-327660	-1165	1589.5	1980.7	1473.1	-4.60E-07	0.0092329	0.18849	0.029613	0.00015633	6396.8	631750	670190	3519.8	980.81	1161.3	213.34	0.00064082	6.09E-06	0.0085356
214	6.78E+00	857.03	0.0011668	-325680	-325680	-1155.7	1592.6	1983.3	1468.7	-4.59E-07	0.0089335	0.18806	0.029498	0.00017566	5693	632730	671360	3503.4	983.37	1163.9	213.8	0.00062743	6.13E-06	0.0086007
215	7.65E+00	856.15	0.001168	-323690	-323690	-1146.4	1595.8	1986	1464.4	-4.58E-07	0.0086461	0.18764	0.029383	0.00019713	5072.7	633720	672520	3487.1	985.94	1166.5	214.26	0.00061435	6.16E-06	0.0086661
216	8.61E+00	855.27	0.0011692	-321710	-321710	-1137.2	1599	1988.7	1460.1	-4.58E-07	0.0083702	0.18722	0.02927	0.00022098	4525.3	634700	673690	3471.1	988.51	1169	214.71	0.0006016	6.19E-06	0.0087318
217	9.69E+00	854.39	0.0011704	-319720	-319720	-1128	1602.3	1991.6	1455.8	-4.57E-07	0.0081052	0.1868	0.029158	0.00024742	4041.8	635690	674860	3455.3	991.11	1171.6	215.16	0.00058915	6.22E-06	0.0087978
218	1.09E+01	853.52	0.0011716	-317720	-317720	-1118.8	1605.7	1994.5	1451.4	-4.56E-07	0.0078505	0.18639	0.029047	0.0002767	3614.1	636690	676030	3439.7	993.71	1174.2	215.61	0.000577	6.25E-06	0.0088641
219	1.22E+01	852.64	0.0011728	-315730	-315730	-1109.7	1609.1	1997.5	1447.1	-4.55E-07	0.0076058	0.18598	0.028937	0.00030909	3235.3	637680	677200	3424.2	996.32	1176.9	216.06	0.00056514	6.29E-06	0.0089307
220	1.37E+01	851.77	0.001174	-313730	-313730	-1100.6	1612.7	2000.6	1442.8	-4.55E-07	0.0073704	0.18557	0.028828	0.00034489	2899.5	638680	678380	3409	998.95	1179.5	216.51	0.00055357	6.32E-06	0.0089975
221	1.53E+01	850.9	0.0011752	-311730	-311730	-1091.5	1616.3	2003.7	1438.5	-4.54E-07	0.0071441	0.18517	0.02872	0.00038441	2601.4	639680	679560	3393.9	1001.6	1182.1	216.96	0.00054227	6.35E-06	0.0090647
222	1.71E+01	850.02	0.0011764	-309720	-309720	-1082.5	1619.9	2006.9	1434.1	-4.53E-07	0.0069263	0.18478	0.028612	0.000428	2336.5	640680	680740	3379.1	1004.2	1184.8	217.41	0.00053124	6.38E-06	0.0091322
223	1.92E+01	849.15	0.0011776	-307710	-307710	-1073.4	1623.7	2010.3	1429.8	-4.52E-07	0.0067167	0.18438	0.028506	0.00047601	2100.8	641680	681930	3364.4	1006.9	1187.5	217.85	0.00052047	6.41E-06	0.0092
224	2.14E+01	848.28	0.0011789	-305700	-305700	-1064.4	1627.5	2013.6	1425.5	-4.51E-07	0.0065149	0.18399	0.028401	0.00052885	1890.9	642690	683120	3349.9	1009.6	1190.2	218.29	0.00050995	6.45E-06	0.0092682
225	2.38E+01	847.41	0.0011801	-303690	-303690	-1055.5	1631.4	2017.1	1421.2	-4.50E-07	0.0063206	0.18361	0.028296	0.00058694	1703.7	643700	684310	3335.6	1012.3	1192.9	218.74	0.00049968	6.48E-06	0.0093366
226	2.65E+01	846.55	0.0011813	-301670	-301670	-1046.5	1635.3	2020.6	1416.9	-4.49E-07	0.0061335	0.18323	0.028192	0.00065074	1536.7	644710	685500	3321.5	1015	1195.6	219.18	0.00048964	0.00000651	0.0094053
227	2.95E+01	845.68	0.0011825	-299640	-299640	-1037.6	1639.3	2024.2	1412.6	-4.48E-07	0.0059531	0.18285	0.028089	0.00072075	1387.4	645730	686690	3307.5	1017.7	1198.3	219.62	0.00047984	6.54E-06	0.0094744
228	3.28E+01	844.81	0.0011837	-297620	-297620	-1028.7	1643.4	2027.9	1408.3	-4.47E-07	0.0057793	0.18247	0.027987	0.00079748	1253.9	646740	687890	3293.7	1020.4	1201	220.06	0.00047027	6.57E-06	0.0095437
229	3.64E+01	843.95	0.0011849	-295590	-295590	-1019.8	1647.5	2031.7	1404	-4.46E-07	0.0056117	0.1821	0.027886	0.00088151	1134.4	647770	689090	3280.1	1023.2	1203.8	220.49	0.00046092	6.61E-06	0.0096134
230	4.04E+01	843.09	0.0011861	-293560	-293550	-1010.9	1651.8	2035.5	1399.7	-4.45E-07	0.0054501	0.18174	0.027786	0.00097344	1027.3	648790	690290	3266.7	1025.9	1206.5	220.93	0.00045178	6.64E-06	0.0096834
231	4.48E+01	842.22	0.0011873	-291520	-291520	-1002.1	1656	2039.4	1395.4	-4.44E-07	0.0052942	0.18137	0.027686	0.0010739	931.16	649810	691500	3253.4	1028.7	1209.3	221.36	0.00044286	6.67E-06	0.0097538
232	4.96E+01	841.36	0.0011886	-289480	-289480	-993.27	1660.3	2043.3	1391.2	-4.43E-07	0.0051438	0.18101	0.027587	0.0011837	844.83	650840	692710	3240.3	1031.4	1212.1	221.8	0.00043413	6.70E-06	0.0098244
233	5.48E+01	840.5	0.0011898	-287430	-287430	-984.47	1664.7	2047.3	1386.9	-4.42E-07	0.0049987	0.18066	0.027489	0.0013034	767.23	651870	693920	3227.3	1034.2	1214.9	222.23	0.00042561	0.000006733	0.0098954
234	6.05E+01	839.64	0.001191	-285380	-285380	-975.7	1669.2	2051.4	1382.7	-4.41E-07	0.0048586	0.18031	0.027392	0.0014339	697.4	652910	695130	3214.5	1037	1217.7	222.66	0.00041728	6.76E-06	0.0099667
235	6.68E+01	838.78	0.0011922	-283330	-283330	-966.94	1673.7	2055.6	1378.5	-4.40E-07	0.0047233	0.17996	0.027295	0.001576	634.5	653940	696350	3201.9	1039.9	1220.6	223.09	0.00040914	6.80E-06	0.010038
236	7.37E+01	837.92	0.0011934	-281270	-281270	-958.2	1678.2	2059.8	1374.3	-4.39E-07	0.0045926	0.17961	0.027199	0.0017307	577.8	654980	697570	3189.4	1042.7	1223.4	223.52	0.00040118	6.83E-06	0.01011
237	8.12E+01	837.06	0.0011947	-279210	-279210	-949.48	1682.8	2064.1	1370.1	-4.38E-07	0.0044664	0.17927	0.027103	0.0018989	526.63	656020	698790	3177.1	1045.5	1226.3	223.94	0.0003934	0.00000686	0.010182
238	8.94E+01	836.2	0.0011959	-277140	-277140	-940.78	1687.5	2068.4	1365.9	-4.37E-07	0.0043445	0.17893	0.027008	0.0020815	480.41	657070	700010	3164.9	1048.4	1229.2	224.37	0.0003858	6.89E-06	0.010255
239	9.83E+01	835.34	0.0011971	-275070	-275070	-932.1	1692.2	2072.8	1361.7	-4.36E-07	0.0042266	0.1786	0.026914	0.0022798	438.63	658110	701240	3152.9	1051.3	1232	224.79	0.00037837	6.92E-06	0.010328
240	1.08E+02	834.49	0.0011983	-273000	-273000	-923.44	1697	2077.3	1357.5	-4.35E-07	0.0041127	0.17826	0.026821	0.0024948	400.83	659160	702470	3141	1054.1	1234.9	225.22	0.0003711	6.96E-06	0.010401
241	1.19E+02	833.63	0.0011996	-270920	-270920	-914.79	1701.8	2081.8	1353.4	-4.34E-07	0.0040025	0.17793	0.026728	0.0027278	366.59	660210	703700	3129.3	1057	1237.9	225.64	0.000364	6.99E-06	0.010475
242	1.30E+02	832.78	0.0012008	-268830	-268830	-906.16	1706.6	2086.4	1349.2	-4.33E-07	0.003896	0.17761	0.026635	0.0029801	335.56	661270	704930	3117.7	1059.9	1240.8	226.06	0.00035705	7.02E-06	0.010549
243	1.43E+02	831.92	0.001202	-266740	-266740	-897.55	1711.5	2091	1345.1	-4.31E-07	0.003793	0.17729	0.026544	0.003253	307.41	662330	706170	3106.2	1062.9	1243.7	226.48	0.00035026	7.05E-06	0.010623
244	1.56E+02	831.07	0.0012033	-264650	-264650	-888.95	1716.5	2095.7	1341	-4.30E-07	0.0036933	0.17697	0.026452	0.0035481	281.84	663380	707410	3094.9	1065.8	1246.7	226.9	0.00034362	7.08E-06	0.010697
245	1.71E+02	830.22	0.0012045	-262550	-262550	-880.37	1721.5	2100.5	1336.9	-4.29E-07	0.0035969	0.17665	0.026362	0.0038668	258.61	664450	708650	3083.7	1068.7	1249.7	227.31	0.00033712	7.11E-06	0.010772
246	1.87E+02	829.36	0.0012057	-260450	-260450	-871.8	1726.5	2105.3	1332.8	-4.28E-07	0.0035035	0.17634	0.026271	0.0042108	237.49	665510	709900	3072.7	1071.7	1252.7	227.73	0.00033077	7.15E-06	0.010847
247	2.04E+02	828.51	0.001207	-258340	-258340	-863.25	1731.6	2110.2	1328.8	-4.27E-07	0.0034131	0.17603	0.026182	0.0045818	218.26	666580	711140	3061.8	1074.7	1255.7	228.14	0.00032456	7.18E-06	0.010923
248	2.23E+02	827.66	0.0012082	-256230	-256230	-854.72	1736.8	2115.1	1324.7	-4.25E-07	0.0033256	0.17572	0.026092	0.0049817	200.74	667650	712390	3051	1077.7	1258.7	228.56	0.00031848	7.21E-06	0.010999
249	2.43E+02	826.81	0.0012095	-254110	-254110	-846.19	1741.9	2120.1	1320.7	-4.24E-07	0.0032409	0.17541	0.026004	0.0054123	184.76	668720	713640	3040.4	1080.7	1261.8	228.97	0.00031254	0.00000724	0.011075
250	2.65E+02	825.96	0.0012107	-251990	-251990	-837.69	1747.2	2125.1	1316.7	-4.23E-07	0.0031588	0.17511	0.025915	0.0058757	170.19	669800	714900	3029.9	1083.7	1264.8	229.38	0.00030672	7.27E-06	0.011151
251	2.89E+02	825.11	0.001212	-249860	-249860	-829.19	1752.4	2130.2	1312.7	-4.22E-07	0.0030793	0.17481	0.025827	0.0063741	156.88	670880	716160	3019.5	1086.7	1267.9	229.79	0.00030103	7.30E-06	0.011228
252	3.14E+02	824.26	0.0012132	-247730	-247730	-820.71	1757.7	2135.4	1308.7	-4.21E-07	0.0030023	0.17452	0.02574	0.0069097	144.72	671960	717420	3009.2	1089.8	1271	230.2	0.00029547	7.33E-06	0.011306
253	3.42E+02	823.41	0.0012145	-245590	-245590	-812.25	1763.1	2140.6	1304.7	-4.19E-07	0.0029276	0.17423	0.025653	0.0074849	133.6	673040	718680	2999.1	1092.8	1274.1	230.6	0.00029002	7.37E-06	0.011383
254	3.71E+02	822.56	0.0012157	-243450	-243450	-803.79	1768.4	2145.8	1300.8	-0.000000418	0.0028552	0.17394	0.025566	0.0081022	123.42	674130	719940	2989.1	1095.9	1277.2	231.01	0.0002847	7.40E-06	0.011461
255	4.03E+02	821.71	0.001217	-241300	-241300	-795.35	1773.9	2151.2	1296.8	-4.17E-07	0.0027851	0.17365	0.02548	0.0087641	114.1	675220	721210	2979.2	1099	1280.4	231.41	0.00027949	7.43E-06	0.011539
256	4.37E+02	820.86	0.0012182	-239150	-239140	-786.92	1779.3	2156.5	1292.9	-4.15E-07	0.002717	0.17336	0.025394	0.0094735	105.56	676310	722480	2969.4	1102.1	1283.5	231.82	0.00027439	7.46E-06	0.011618
